# This file contains some example data for using AvoPlot.

# The data is an ultra-violet (UV) spectrum recorded with
# an OceanOptics USB2000+ spectrometer.

# Wavelength (nm)   Intensity
282.26 623.36
282.35 623.36
282.45 623.36
282.54 561.73
282.63 521.94
282.73 635.85
282.82 576.55
282.91 604.64
283.01 543.78
283.10 529.74
283.20 574.99
283.29 526.62
283.38 573.43
283.48 545.34
283.57 546.12
283.66 535.98
283.76 540.66
283.85 643.65
283.94 608.54
284.04 599.96
284.13 569.53
284.22 582.01
284.32 603.08
284.41 634.29
284.50 721.67
284.60 1004.87
284.69 1015.01
284.78 1021.25
284.88 1029.06
284.97 1102.39
285.06 1078.21
285.16 1064.16
285.25 1067.28
285.34 1100.05
285.43 1084.45
285.53 1124.24
285.62 1065.72
285.71 1157.00
285.81 1089.13
285.90 1087.57
285.99 1135.16
286.09 1130.48
286.18 1103.17
286.27 1096.93
286.36 1047.00
286.46 1085.23
286.55 1077.43
286.64 1108.63
286.74 1178.07
286.83 1121.12
286.92 1070.40
287.01 1039.98
287.11 1092.25
287.20 1118.00
287.29 1061.82
287.39 1125.02
287.48 1077.43
287.57 1173.39
287.66 1122.68
287.76 1057.92
287.85 1118.00
287.94 1077.43
288.03 1082.11
288.13 1153.88
288.22 1111.75
288.31 1093.03
288.40 1078.99
288.50 1066.50
288.59 1089.13
288.68 1093.81
288.78 1059.48
288.87 1064.16
288.96 1102.39
289.05 1098.49
289.14 1079.77
289.24 1057.92
289.33 1104.73
289.42 1182.75
289.51 1105.51
289.61 1071.97
289.70 1183.53
289.79 1083.67
289.88 1113.31
289.98 1065.72
290.07 1039.98
290.16 1063.38
290.25 1067.28
290.34 1069.62
290.44 1160.91
290.53 1133.60
290.62 1171.83
290.71 1096.93
290.81 1142.96
290.90 1150.76
290.99 1102.39
291.08 1092.25
291.17 1100.83
291.27 1107.07
291.36 1039.98
291.45 1054.02
291.54 1071.19
291.63 1125.80
291.73 1081.33
291.82 1126.58
291.91 1162.47
292.00 1096.93
292.09 1135.16
292.19 1093.03
292.28 1192.89
292.37 1146.08
292.46 1162.47
292.55 1111.75
292.64 1132.82
292.74 1142.18
292.83 1103.95
292.92 1132.82
293.01 1086.79
293.10 1155.44
293.19 1125.80
293.29 1070.40
293.38 1132.82
293.47 1108.63
293.56 1128.14
293.65 1090.69
293.74 1122.68
293.84 1059.48
293.93 1109.41
294.02 1107.85
294.11 1142.18
294.20 1085.23
294.29 1142.96
294.38 1202.26
294.48 1100.05
294.57 1086.01
294.66 1118.00
294.75 1091.47
294.84 1138.28
294.93 1109.41
295.02 1120.34
295.12 1137.50
295.21 1147.64
295.30 1132.82
295.39 1046.22
295.48 1121.12
295.57 1162.47
295.66 1127.36
295.75 1136.72
295.85 1147.64
295.94 1131.26
296.03 1163.25
296.12 1172.61
296.21 1182.75
296.30 1150.76
296.39 1157.78
296.48 1148.42
296.57 1160.13
296.66 1151.54
296.76 1152.32
296.85 1144.52
296.94 1164.03
297.03 1152.32
297.12 1136.72
297.21 1139.06
297.30 1227.22
297.39 1160.91
297.48 1229.56
297.57 1220.20
297.66 1226.44
297.76 1260.77
297.85 1194.45
297.94 1188.99
298.03 1188.99
298.12 1235.02
298.21 1354.39
298.30 1171.05
298.39 1177.29
298.48 1242.82
298.57 1260.77
298.66 1266.23
298.75 1339.57
298.84 1260.77
298.93 1324.74
299.03 1322.40
299.12 1328.64
299.21 1339.57
299.30 1408.22
299.39 1270.13
299.48 1388.72
299.57 1387.94
299.66 1320.84
299.75 1306.02
299.84 1350.49
299.93 1304.46
300.02 1320.06
300.11 1352.83
300.20 1448.01
300.29 1394.18
300.38 1429.29
300.47 1430.07
300.56 1501.06
300.65 1490.14
300.74 1516.67
300.83 1550.21
300.92 1614.19
301.01 1622.77
301.10 1716.39
301.19 1704.69
301.28 1689.87
301.37 1726.54
301.46 1611.85
301.55 1604.83
301.64 1591.56
301.73 1623.55
301.82 1665.68
301.91 1600.93
302.00 1692.99
302.09 1836.54
302.18 1914.56
302.27 1977.75
302.36 1944.20
302.45 2111.16
302.54 2164.22
302.63 2278.12
302.72 2327.27
302.81 2409.97
302.90 2569.91
302.99 2506.71
303.08 2568.35
303.17 2652.61
303.26 2697.86
303.35 2652.61
303.44 2656.51
303.53 2610.48
303.62 2570.69
303.71 2569.13
303.80 2620.62
303.89 2687.72
303.98 2712.68
304.07 2820.35
304.16 2882.76
304.25 2892.90
304.34 3038.80
304.43 3068.44
304.52 3155.04
304.61 3247.88
304.70 3395.34
304.79 3460.87
304.87 3707.41
304.96 3799.47
305.05 3828.34
305.14 3854.86
305.23 3809.61
305.32 3838.48
305.41 3686.34
305.50 3446.05
305.59 3435.13
305.68 3474.92
305.77 3527.97
305.86 3630.17
305.95 3784.65
306.04 4027.28
306.13 4008.56
306.21 4028.06
306.30 4007.00
306.39 4052.25
306.48 3999.98
306.57 4303.46
306.66 4525.82
306.75 4713.06
306.84 4958.82
306.93 5192.87
307.02 5376.99
307.11 5398.84
307.19 5471.39
307.28 5474.51
307.37 5576.72
307.46 5746.02
307.55 5751.48
307.64 5748.36
307.73 5928.58
307.82 5895.03
307.91 5795.95
307.99 5696.86
308.08 5915.31
308.17 6065.11
308.26 6140.79
308.35 6342.07
308.44 6354.55
308.53 6379.52
308.62 6266.39
308.70 6002.69
308.79 5845.88
308.88 5691.40
308.97 5550.19
309.06 5604.02
309.15 5734.31
309.24 5936.38
309.33 6129.86
309.41 6054.19
309.50 6517.61
309.59 6512.93
309.68 6328.81
309.77 6094.76
309.86 6125.96
309.94 6345.19
310.03 6852.31
310.12 9110.15
310.21 8184.07
310.30 8714.59
310.39 9394.91
310.48 9902.03
310.56 10072.11
310.65 10395.10
310.74 10576.88
310.83 10583.90
310.92 10920.16
311.01 10940.44
311.09 10757.88
311.18 10693.13
311.27 10658.02
311.36 10744.62
311.45 10345.17
311.53 10315.52
311.62 10135.30
311.71 10151.68
311.80 10086.15
311.89 10074.45
311.97 10432.55
312.06 10771.93
312.15 11147.97
312.24 11504.51
312.33 11687.86
312.41 11973.40
312.50 12025.67
312.59 11949.22
312.68 12067.80
312.77 12326.04
312.85 12302.64
312.94 12245.68
313.03 12106.81
313.12 12190.29
313.21 12219.94
313.29 12331.50
313.38 12624.07
313.47 13092.96
313.56 13683.55
313.64 14365.43
313.73 14790.63
313.82 14951.34
313.91 15022.34
314.00 14583.88
314.08 13616.46
314.17 13064.87
314.26 12603.00
314.35 12576.48
314.43 12865.14
314.52 13457.30
314.61 14421.60
314.70 15190.08
314.78 15949.19
314.87 16083.38
314.96 16480.49
315.05 16443.04
315.13 15991.32
315.22 15807.98
315.31 15209.58
315.40 14380.25
315.48 13657.03
315.57 12936.92
315.66 12632.65
315.75 12304.20
315.83 12489.10
315.92 13077.35
316.01 14231.24
316.09 14881.13
316.18 15868.83
316.27 16689.58
316.36 17461.18
316.44 18111.07
316.53 18645.49
316.62 19005.15
316.70 20117.68
316.79 20975.88
316.88 21753.72
316.97 22625.96
317.05 23268.83
317.14 23569.19
317.23 23848.50
317.31 23794.67
317.40 23508.34
317.49 22792.14
317.58 21957.35
317.66 20649.77
317.75 19722.91
317.84 18863.94
317.92 18165.68
318.01 18389.59
318.10 18783.58
318.18 19851.64
318.27 21074.96
318.36 22004.94
318.44 23478.69
318.53 24390.72
318.62 25444.74
318.70 26354.43
318.79 26157.05
318.88 25475.17
318.96 24626.34
319.05 23597.28
319.14 22376.30
319.22 22228.07
319.31 22346.65
319.40 23079.24
319.48 24080.21
319.57 25220.83
319.66 26059.52
319.74 26551.82
319.83 26788.21
319.92 27922.59
320.00 28345.45
320.09 28670.00
320.18 29830.13
320.26 30524.49
320.35 31067.49
320.44 31353.04
320.52 31381.90
320.61 30244.40
320.69 29418.19
320.78 27955.36
320.87 26771.05
320.95 25269.98
321.04 24570.16
321.13 24006.87
321.21 24075.53
321.30 24792.51
321.39 25410.42
321.47 26330.25
321.56 27632.36
321.64 28775.33
321.73 29379.96
321.82 29546.14
321.90 28642.70
321.99 28198.77
322.07 27559.03
322.16 27129.93
322.25 26166.41
322.33 25195.09
322.42 24380.58
322.50 24032.62
322.59 23644.87
322.68 22807.74
322.76 22871.72
322.85 23875.02
322.93 24709.82
323.02 25454.89
323.11 26299.82
323.19 26594.73
323.28 27360.08
323.36 27060.49
323.45 26984.82
323.53 27821.95
323.62 28529.57
323.71 29366.70
323.79 30409.02
323.88 31191.54

323.96 31745.47
324.05 31802.42
324.13 32364.93
324.22 32633.31
324.31 32277.55
324.39 32048.96
324.48 31661.21
324.56 31340.55
324.65 30752.30
324.73 30498.74
324.82 30027.51
324.90 30419.94
324.99 30884.15
325.08 32080.94
325.16 33248.09
325.25 34481.55
325.33 35771.19
325.42 37735.68
325.50 38509.61
325.59 40423.39
325.67 40996.82
325.76 41718.49
325.84 41918.99
325.93 42209.22
326.01 42557.96
326.10 41893.25
326.19 41273.79
326.27 41028.03
326.36 41162.22
326.44 41791.83
326.53 41862.82
326.61 42244.33
326.70 42832.58
326.78 42681.23
326.87 41921.34
326.95 41283.15
327.04 40950.79
327.12 40217.43
327.21 40514.67
327.29 40464.74
327.38 40627.02
327.46 40326.65
327.55 39488.74
327.63 39206.31
327.72 38540.04
327.80 38143.71
327.89 37936.18
327.97 37990.80
328.06 38086.76
328.14 38442.52
328.23 38451.88
328.31 38231.87
328.40 37508.65
328.48 37635.03
328.57 38161.65
328.65 38585.29
328.73 40345.37
328.82 41375.99
328.90 43523.04
328.99 45133.33
329.07 46865.33
329.16 47342.80
329.24 47420.81
329.33 47995.03
329.41 47678.27
329.50 48413.20
329.58 48258.73
329.67 48481.86
329.75 48492.78
329.83 49048.27
329.92 48375.75
330.00 47378.68
330.09 46225.58
330.17 44948.43
330.26 43228.13
330.34 40871.99
330.43 39595.62
330.51 39763.36
330.59 40069.97
330.68 40322.75
330.76 41045.97
330.85 41932.26
330.93 42482.28
331.02 42083.61
331.10 41789.49
331.18 41450.11
331.27 40861.07
331.35 41542.95
331.44 41599.12
331.52 42374.62
331.61 43054.93
331.69 43743.83
331.77 43675.96
331.86 43512.90
331.94 42984.72
332.03 41585.86
332.11 41106.05
332.19 41243.36
332.28 41677.14
332.36 41823.81
332.45 42230.29
332.53 42969.12
332.61 43375.59
332.70 42173.33
332.78 41997.01
332.87 41564.01
332.95 41765.30
333.03 42021.20
333.12 41961.90
333.20 41705.23
333.28 40683.19
333.37 39221.14
333.45 38440.18
333.54 38032.93
333.62 37999.38
333.70 38213.15
333.79 39323.34
333.87 40366.44
333.95 41625.65
334.04 42028.22
334.12 42625.84
334.21 43579.21
334.29 43626.81
334.37 44393.72
334.46 44544.30
334.54 44030.16
334.62 43193.81
334.71 42096.10
334.79 41388.47
334.87 41584.30
334.96 42243.55
335.04 42964.43
335.12 44308.68
335.21 45827.69
335.29 46740.50
335.37 46550.13
335.46 45941.60
335.54 44197.90
335.62 41704.45
335.71 38905.94
335.79 35757.14
335.87 32830.69
335.96 31853.91
336.04 31921.79
336.12 33758.33
336.21 36400.01
336.29 38510.39
336.37 40328.99
336.46 40304.02
336.54 39097.87
336.62 37464.17
336.71 35456.00
336.79 33558.60
336.87 32792.47
336.96 32762.04
337.04 32761.26
337.12 34087.56
337.20 35767.29
337.29 38081.30
337.37 40161.25
337.45 41911.19
337.54 42966.77
337.62 42756.91
337.70 41553.09
337.78 39907.69
337.87 39013.61
337.95 38311.45
338.03 38225.63
338.12 38711.68
338.20 40432.75
338.28 42064.89
338.36 43596.38
338.45 44091.01
338.53 43581.56
338.61 44068.39
338.70 44591.89
338.78 43715.75
338.86 42785.77
338.94 41533.59
339.03 40882.14
339.11 40096.50
339.19 39832.02
339.27 39628.39
339.36 40671.49
339.44 42353.55
339.52 44458.48
339.60 46089.83
339.69 47429.40
339.77 48436.61
339.85 48786.13
339.93 48949.96
340.02 48172.91
340.10 47757.07
340.18 46755.32
340.26 45547.61
340.35 44400.74
340.43 43952.14
340.51 43398.99
340.59 42976.92
340.67 42674.99
340.76 42781.09
340.84 42625.06
340.92 42735.06
341.00 42497.11
341.09 41766.86
341.17 40790.86
341.25 40134.73
341.33 39834.36
341.41 39502.78
341.50 40354.74
341.58 41761.40
341.66 44325.07
341.74 46103.09
341.82 46261.47
341.91 46699.93
341.99 46368.35
342.07 45642.79
342.15 44587.99
342.23 43679.08
342.32 43444.24
342.40 43337.36
342.48 43629.93
342.56 44662.88
342.64 45833.93
342.73 46605.53
342.81 47168.04
342.89 47626.00
342.97 47497.27
343.05 46767.02
343.13 45777.76
343.22 45138.01
343.30 44583.30
343.38 43991.93
343.46 43751.63
343.54 43315.51
343.62 42202.98
343.71 39620.59
343.79 36702.72
343.87 33871.45
343.95 32136.34
344.03 31447.44
344.11 30422.28
344.20 30668.82
344.28 31992.78
344.36 33906.56
344.44 35952.97
344.52 37890.15
344.60 39738.40
344.68 41471.95
344.77 42927.77
344.85 44233.78
344.93 44717.50
345.01 45074.82
345.09 44953.11
345.17 45446.18
345.25 45188.72
345.34 44235.34
345.42 44804.10
345.50 44705.01
345.58 43645.53
345.66 42762.37
345.74 41091.23
345.82 39463.77
345.90 39054.18
345.99 39125.96
346.07 39817.19
346.15 41322.94
346.23 42327.81
346.31 42966.77
346.39 44106.62
346.47 45124.75
346.55 45276.10
346.63 44959.35
346.71 45719.24
346.80 46836.46
346.88 47114.20
346.96 46419.06
347.04 45351.00
347.12 44048.10
347.20 42236.53
347.28 39402.92
347.36 38324.71
347.44 38058.67
347.52 38644.59
347.60 39328.80
347.69 40682.41
347.77 42006.37
347.85 43771.92
347.93 44921.90
348.01 44446.77
348.09 44113.64
348.17 43944.34
348.25 43428.64
348.33 43552.69
348.41 43530.06
348.49 44291.52
348.57 44745.58
348.65 43824.19
348.73 43093.94
348.81 42465.12
348.90 41372.87
348.98 39889.75
349.06 39169.65
349.14 39509.02
349.22 40467.08
349.30 41070.94
349.38 40764.33
349.46 41294.85
349.54 42121.06
349.62 43682.98
349.70 44375.78
349.78 46149.12
349.86 48028.57
349.94 50338.68
350.02 51995.78
350.10 52560.63
350.18 52614.46
350.26 52239.20
350.34 51900.60
350.42 51748.46
350.50 51359.94
350.58 50447.91
350.66 49668.51
350.74 49122.38
350.82 48744.00
350.90 48351.57
350.98 46856.74
351.06 45217.59
351.14 44707.35
351.22 44367.98
351.30 45318.23
351.38 45895.56
351.46 47049.45
351.54 49163.73
351.62 50273.15
351.70 50845.02
351.78 50684.30
351.86 50059.38
351.94 48224.40
352.02 46231.82
352.10 43968.52
352.18 41465.71
352.26 40531.06
352.34 39804.71
352.42 39880.39
352.50 40712.06
352.58 42647.68
352.66 44692.53
352.74 46891.07
352.82 48775.20
352.90 50339.46
352.98 50525.14
353.06 50397.98
353.14 50809.13
353.22 50899.63
353.30 50912.89
353.38 51798.40
353.46 52599.64
353.54 53315.84
353.62 53376.70
353.70 53755.08
353.78 53404.78
353.85 53668.48
353.93 53741.04
354.01 54238.79
354.09 54406.53
354.17 53859.63
354.25 54017.22
354.33 54663.21
354.41 55095.43
354.49 55087.63
354.57 54983.08
354.65 54848.11
354.73 55082.17
354.81 55110.25
354.89 54599.24
354.97 54294.19
355.04 53727.78
355.12 52583.26
355.20 51832.72
355.28 51320.93
355.36 51072.05
355.44 50455.71
355.52 50511.88
355.60 51309.22
355.68 51938.83
355.76 51900.60
355.84 52184.58
355.92 52373.39
355.99 52944.48
356.07 52863.34
356.15 51973.94
356.23 50361.31
356.31 48564.56
356.39 46472.12
356.47 44169.03
356.55 41719.27
356.63 39767.26
356.70 39374.83
356.78 39989.61
356.86 40605.95
356.94 40494.39
357.02 40688.65
357.10 41519.54
357.18 44080.09
357.26 45816.77
357.33 46987.03
357.41 47895.16
357.49 47259.32
357.57 46085.93
357.65 44874.31
357.73 42689.81
357.81 40072.31
357.88 37349.49
357.96 35362.37
358.04 34395.73
358.12 33558.60
358.20 32836.16
358.28 33180.99
358.36 34186.64
358.43 34918.45
358.51 35214.92
358.59 36072.34
358.67 37780.15
358.75 40973.42
358.83 44344.57
358.91 47421.59
358.98 49605.31
359.06 51164.11
359.14 52613.68
359.22 53836.22
359.30 54312.13
359.37 54665.55
359.45 55130.54
359.53 56260.24
359.61 56924.17
359.69 57457.81
359.77 57581.86
359.84 57066.16
359.92 56189.24
360.00 55481.62
360.08 54469.73
360.16 53082.57
360.23 51385.68
360.31 49386.08
360.39 47991.12
360.47 47198.46
360.55 46064.86
360.62 45150.49
360.70 45167.66
360.78 45378.31
360.86 45383.77
360.94 45882.30
361.01 46558.72
361.09 48728.39
361.17 50326.20
361.25 51491.79
361.33 51409.09
361.40 50677.28
361.48 49152.03
361.56 47570.61
361.64 46476.02
361.71 45100.56
361.79 44203.36
361.87 44254.85
361.95 45570.23
362.03 48166.66
362.10 51332.63
362.18 53771.47
362.26 55459.77
362.34 57097.37
362.41 57893.93
362.49 58336.29
362.57 58568.79
362.65 58527.44
362.72 57213.62
362.80 55698.51
362.88 52800.93
362.96 50882.47
363.03 48857.90
363.11 47388.05
363.19 46713.19
363.27 48453.77
363.34 50814.59
363.42 52582.48
363.50 53837.00
363.58 55058.76
363.65 56491.17
363.73 57160.56
363.81 57588.88
363.88 58014.86
363.96 57956.35
364.04 57174.61
364.12 56350.74
364.19 55082.17
364.27 53872.89
364.35 52436.58
364.43 51286.60
364.50 50700.68
364.58 50499.40
364.66 50543.09
364.73 51207.80
364.81 52030.89
364.89 53865.87
364.96 55939.58
365.04 57195.67
365.12 58444.74
365.20 59297.47
365.27 60114.32
365.35 60662.00
365.43 60966.27
365.50 61094.22
365.58 61375.87
365.66 61517.08
365.73 61856.46
365.81 62161.51
365.89 61971.14
365.96 61640.35
366.04 61536.58
366.12 61211.25
366.19 60797.76
366.27 60548.10
366.35 60085.45
366.42 59922.40
366.50 59888.85
366.58 59741.39
366.65 59490.96
366.73 59557.27
366.81 59480.03
366.88 59910.69
366.96 59889.63
367.04 60386.60
367.11 60759.53
367.19 61265.86
367.27 61434.38
367.34 60761.09
367.42 60154.11
367.50 59522.94
367.57 58780.99
367.65 57783.93
367.73 56891.40
367.80 56462.30
367.88 56711.18
367.96 57095.03
368.03 57241.70
368.11 57513.98
368.18 57891.59
368.26 57802.65
368.34 57254.18
368.41 56958.50
368.49 56101.08
368.57 56056.61
368.64 56296.91
368.72 57216.74
368.79 58236.43
368.87 59477.69
368.95 60601.15
369.02 61123.87
369.10 61471.83
369.17 61528.78
369.25 61414.88
369.33 60794.64
369.40 60674.49
369.48 60921.80
369.55 61451.55
369.63 62092.07
369.71 62299.60
369.78 62702.17
369.86 62718.56
369.93 62652.24
370.01 61966.46
370.09 60800.88
370.16 59128.95
370.24 57445.33
370.31 55758.58
370.39 54136.59
370.47 52875.82
370.54 52200.97
370.62 52584.82
370.69 54212.27
370.77 56039.45
370.84 57293.97
370.92 58958.87
371.00 60586.33
371.07 61982.07
371.15 62884.73
371.22 63243.62
371.30 63647.75
371.37 63527.60
371.45 62658.48
371.52 61114.51
371.60 58831.71
371.68 56191.58
371.75 53674.73
371.83 50885.59
371.90 48661.30
371.98 47886.58
372.05 48788.47
372.13 51309.22
372.20 54170.92
372.28 56198.60
372.35 57422.70
372.43 58458.78
372.51 58688.15
372.58 58770.07
372.66 58435.38
372.73 57564.70
372.81 56605.08
372.88 56120.59
372.96 54831.73
373.03 52618.36
373.11 48771.30
373.18 45108.36
373.26 41862.04
373.33 39391.22
373.41 39175.11
373.48 40435.10
373.56 43545.67
373.63 47201.58
373.71 50926.94
373.78 53751.18
373.86 55660.28
373.93 56433.44
374.01 56359.32
374.08 55012.73
374.16 53483.58
374.23 50899.63
374.31 48258.73
374.38 45393.13
374.46 43042.45
374.53 41438.40
374.61 40853.27
374.68 41090.44
374.76 43480.13
374.83 45521.86
374.91 48180.71
374.98 51796.06
375.06 55545.59
375.13 58436.16
375.21 59905.23
375.28 60347.59
375.35 60047.22
375.43 59533.87
375.50 58301.96
375.58 56888.28
375.65 55292.82
375.73 54079.64
375.80 52932.00
375.88 52832.13
375.95 54021.90
376.03 55150.04
376.10 55682.90
376.17 56004.34
376.25 55569.00
376.32 54940.17
376.40 55087.63
376.47 55285.01
376.55 55689.15
376.62 55674.32
376.70 55603.33
376.77 56123.71
376.84 57195.67
376.92 58383.10
376.99 58997.10
377.07 59621.25
377.14 60307.80
377.22 61277.57
377.29 61603.68
377.36 61872.84
377.44 61963.34
377.51 62119.38
377.59 62496.20
377.66 62986.16
377.73 63079.78
377.81 63338.02
377.88 63548.67
377.96 64116.64
378.03 64257.07
378.11 64171.25
378.18 63693.78
378.25 63123.47
378.33 62308.96
378.40 61381.33
378.48 60348.37
378.55 58946.39
378.62 57389.94
378.70 56864.88
378.77 56541.10
378.84 56588.69
378.92 56545.00
378.99 56271.94
379.07 56168.18
379.14 56140.09
379.21 55527.65
379.29 54212.27
379.36 52755.67
379.43 51637.68
379.51 50701.46
379.58 50891.05
379.66 51621.30
379.73 52391.33
379.80 53067.75
379.88 55011.17
379.95 56850.83
380.02 58348.00
380.10 59673.52
380.17 60116.66
380.24 60255.53
380.32 60410.01
380.39 59797.57
380.47 59810.83
380.54 59688.34
380.61 59643.87
380.69 59749.20
380.76 59822.53
380.83 60177.51
380.91 59886.51
380.98 59478.47
381.05 58142.81
381.13 56505.21
381.20 54724.85
381.27 52756.46
381.35 51193.76
381.42 50161.58
381.49 49584.25
381.57 48628.53
381.64 48236.10
381.71 48319.58
381.78 47983.32
381.86 47310.03
381.93 46316.86
382.00 44924.24
382.08 43655.67
382.15 43322.54
382.22 42962.09
382.30 41884.67
382.37 39700.95
382.44 37599.15
382.52 36751.87
382.59 36779.96
382.66 36790.10
382.73 37424.39
382.81 37357.29
382.88 37136.50
382.95 36694.14
383.03 36191.70
383.10 35806.30
383.17 35635.44
383.24 35104.13
383.32 35272.65
383.39 35523.09
383.46 35658.84
383.54 35749.34
383.61 35799.27
383.68 35850.77
383.75 36735.49
383.83 38021.22
383.90 40133.95
383.97 42943.37
384.04 46046.92
384.12 48983.51
384.19 51041.62
384.26 53330.67
384.34 53956.37
384.41 54117.87
384.48 54265.32
384.55 54058.57
384.63 53439.11
384.70 53831.54
384.77 53470.32
384.84 53534.29
384.92 52807.17
384.99 52194.73
385.06 52087.84
385.13 52334.38
385.20 51979.40
385.28 51015.88
385.35 50113.99
385.42 48312.56
385.49 46510.35
385.57 44774.45
385.64 43555.81
385.71 43143.88
385.78 44052.00
385.86 44254.07
385.93 46318.42
386.00 48361.71
386.07 50498.62
386.14 52552.83
386.22 54096.02
386.29 54831.73
386.36 54774.00
386.43 53614.65
386.50 52776.74
